File: Chan-VeseActiveContours/data/cement_dsc.txt
4886.01 1482.47 0.019265
4673.67 1477.12 0.036850
4466.71 1471.94 0.055288
4244.87 1466.89 0.072820
4040.37 1461.98 0.090063
3814.66 1457.24 0.107562
3593.54 1452.67 0.127760
3388.54 1448.27 0.145231
3150.77 1443.9 0.163055
2934.45 1439.45 0.182224
2744.24 1436.11 0.339844
2048.17 1417.89 0.369591
1858.22 1411.99 0.395194
1675.2 1406.23 0.419430
1492.32 1400.66 0.443757
1332.34 1395.29 0.468211
1197.74 1390.24 0.492530
1076.15 1385.62 0.516861
966.13 1381.47 0.541549
883.277 1377.77 0.565176
833.534 1374.61 0.588604
762.299 2262.31 0.753706
674.676 2273.41 0.818542
659.825 2281.95 0.864970
652.05 2290.36 0.913601
645.911 2298.89 0.961542
640.685 2307.4 1.009565
636.034 2315.87 1.056239
631.898 2324.28 1.102666
628.209 2332.57 1.149986
624.923 2340.8 1.196862
622.041 2348.96 1.243154
508.62 4697.51 1.471461
472.381 4793.39 1.625167
455.274 4842.01 1.719524
438.991 4886.76 1.810004
429.275 4934.38 1.900554
415.401 4963.64 1.995271
405.667 5009.43 2.087880
397.294 5050.72 2.181654
389.954 5091.42 2.275034
383.407 5131.72 2.367957
377.852 5164.83 2.461135
303.606 7645.21 2.757051
272.934 7616.83 2.897363
265.507 7565.13 2.990161
259.059 7497.29 3.106866
254.123 7501.26 3.207944
249.368 7496.5 3.304343
246.207 7494.59 3.396802
243.202 7489.8 3.489908
241.405 7467.76 3.582303
240.383 7463.41 3.737269
236.172 7467.22 3.830833
216.725 8469.51 4.126564
226.096 8363.56 4.254760
208.095 8318.8 4.347983
202.929 8299.33 4.436362
198.32 8258.51 4.526926
194.064 8228.11 4.617527
192.368 8227.9 4.711383
190.702 8229.15 4.801409
190.661 8235.97 4.894188
188.985 8228.06 4.986296
189.389 8212.05 5.081542
183.583 8733.39 5.381933
220.247 8665.3 5.560319
184.137 8606.82 5.681529
178.642 8560.81 5.778528
176.839 8530.91 5.876552
176.17 8498.23 5.968312
175.805 8481.31 6.065450
175.382 8462.75 6.160341
176.112 8446.91 6.249910
174.456 8451.79 6.341494
175.942 8446.56 6.434834
171.633 8875.22 6.745450
255.104 8749.41 6.929620
211.618 8723.55 7.052726
195.631 8700.19 7.152629
185.171 8677.73 7.248656
181.703 8670.95 7.349891
171.322 8657.62 7.444366
169.378 8640.95 7.542219
163.844 8630.81 7.641790
160.515 8628.46 7.739224
158.482 8588.93 7.840297
156.743 9159.26 8.163327
212.258 9021.29 8.331891
187.93 8967.53 8.437288
173.384 8937.99 8.540438
164.22 8884.43 8.645991
156.965 8824.89 8.762177
161.663 8779.84 8.859494
156.725 8770.74 8.953878
153.795 8747.73 9.052800
151.431 8734.32 9.152071
150.399 8708.42 9.252230
150.428 9121.51 9.586287
163.302 9022.88 9.737620
152.121 8986 9.845004
147.689 8936.15 9.952827
146.683 8893.08 10.063
146.139 8853.99 10.1738
146.006 8832.56 10.2758
145.873 8816.33 10.3846
145.858 8797.97 10.488
145.856 8781.59 10.5876
145.723 8762.3 10.6916
146.676 9268.89 11.0177
153.203 9176.01 11.1871
146.395 9147.01 11.3158
143.331 9113.38 11.4227
142.943 9052.82 11.532
142.723 9018.75 11.6367
143.617 8991.7 11.7416
143.186 8969.22 11.8494
143.187 8932.21 11.9555
143.291 8906.18 12.0571
143.265 8883.12 12.165
143.262 9234.97 12.4998
156.307 9169.83 12.6655
141.665 9134.38 12.7973
141.101 9103.49 12.9045
141.562 9065.37 13.0143
143.122 9044.07 13.1193
143.977 9000.67 13.2298
144.02 8983.93 13.361
146.49 8958.05 13.5002
140.366 8943.67 13.6357
139.96 8942.32 13.7436
140.587 9310.15 14.0771
151.741 9214.98 14.2296
151.803 9163.06 14.3872
139.701 9126.33 14.4964
139.61 9080.89 14.6049
138.971 9051.02 14.712
139.101 9022.97 14.8203
138.701 8993.94 14.9262
138.913 8963.82 15.0337
138.751 8950.25 15.1358
138.966 8939.16 15.2393
139.272 9332.37 15.559
169.631 9281 15.7318
152.912 9240.95 15.8586
150.074 9198.96 15.9678